'IUE_ABS'
'LWR,LORES,ITF2: Oliversen, Gerhart. 1987.'

1.0E-14  12.0  -0.0075

61  61  61   0

1825   50.58
1850   21.50
1875   10.854
1900    6.565
1925    4.640
1950    3.374
1975    2.557
2000    2.355
2025    2.072
2050    1.888
2075    1.780
2100    1.746
2125    1.665
2150    1.680
2175    1.683
2200    1.594
2225    1.591
2250    1.454
2275    1.309
2300    1.184
2325    1.080
2350    0.981
2375    0.882
2400    0.801
2425    0.719
2450    0.650
2475    0.574
2500    0.547
2525    0.502
2550    0.471
2575    0.431
2600    0.411
2625    0.376
2650    0.353
2675    0.350
2700    0.337
2725    0.333
2750    0.327
2775    0.333
2800    0.342
2825    0.334
2850    0.358
2875    0.350
2900    0.359
2925    0.393
2950    0.418
2975    0.448
3000    0.522
3025    0.574
3050    0.644
3075    0.749
3100    0.890
3125    1.101
3150    1.341
3175    1.719
3200    2.371
3225    3.011
3250    4.088
3275    5.333
3300    6.326
3325    8.92

1825    1.109
1850    1.192
1875    1.141
1900    1.102
1925    1.101
1950    1.077
1975    1.048
2000    1.071
2025    1.064
2050    1.074
2075    1.057
2100    1.061
2125    1.041
2150    1.052
2175    1.067
2200    1.030
2225    1.066
2250    1.051
2275    1.072
2300    1.059
2325    1.065
2350    1.062
2375    1.065
2400    1.050
2425    1.053
2450    1.045
2475    1.012
2500    1.058
2525    1.041
2550    1.040
2575    1.054
2600    1.038
2625    1.019
2650    1.029
2675    1.029
2700    1.018
2725    1.012
2750    1.009
2775    1.041
2800    1.052
2825    1.021
2850    1.062
2875    1.032
2900    1.020
2925    1.068
2950    1.017
2975    1.028
3000    1.072
3025    1.044
3050    1.044
3075    1.025
3100    1.030
3125    1.037
3150    1.047
3175    1.053
3200    1.103
3225    1.081
3250    1.112
3275    1.066
3300    0.889
3325    1.010

1825    1.288
1850    1.379
1875    1.150
1900    1.117
1925    1.154
1950    1.067
1975    1.022
2000    1.075
2025    1.067
2050    1.013
2075    1.044
2100    1.048
2125    1.003
2150    0.999
2175    1.006
2200    0.981
2225    1.021
2250    0.987
2275    1.062
2300    1.064
2325    1.054
2350    1.082
2375    1.052
2400    1.111
2425    1.046
2450    1.091
2475    0.997
2500    1.024
2525    1.074
2550    1.081
2575    1.033
2600    1.046
2625    1.054
2650    1.013
2675    1.047
2700    1.028
2725    1.013
2750    1.063
2775    1.057
2800    1.031
2825    1.007
2850    1.067
2875    1.017
2900    1.003
2925    1.053
2950    1.043
2975    1.010
3000    1.020
3025    1.060
3050    1.023
3075    0.986
3100    0.992
3125    0.959
3150    0.903
3175    0.852
3200    0.948
3225    0.763
3250    0.662
3275    0.685
3300    0.176
3325    0.229

# Title:      LWR,LORES,ITF2 Absolute Flux Calibration.
# From:       Oliversen and Garhardt. 1987. Goddard.
# Contents:   CALTYP,
#             CALID, 
#             SCALE, THDA, DFNDT,
#             NABS,  NSAP, NTRAIL, DATYP,
#             (WABS(I),   DFDFN(I),  I = 1, NABS),
#             (WSAP(I),   SAPCOR(I), I = 1, NSAP),
#             (WTRAIL(I), TRACOR(I), I = 1, NTRAIL)
# Notes:      Wavelengths above 2000A are "Air".
# End:
