'IUE_ABS'
'LWR,LORES,ITF1: Clavel, Gilmozzi, Prieto. 1986.'

1.0E-14  12.0  -0.0075

31  31  31   1

1850  15.1
1900   5.08
1950   2.85
2000   1.90
2050   1.63
2100   1.50
2150   1.47
2200   1.40
2250   1.20
2300   1.00
2350   0.828
2400   0.705
2450   0.593
2500   0.516
2550   0.457
2600   0.414
2650   0.378
2700   0.350
2750   0.341
2800   0.339
2850   0.347
2900   0.375
2950   0.421
3000   0.493
3050   0.612
3100   0.843
3150   1.22
3200   1.90
3250   3.38
3300   7.09
3350  15.0

1850   1.113
1900   1.063
1950   1.024
2000   0.998
2050   0.981
2100   0.973
2150   0.971
2200   0.971
2250   0.971
2300   0.973
2350   0.986
2400   1.002
2450   1.021
2500   1.032
2550   1.040
2600   1.047
2650   1.050
2700   1.052
2750   1.048
2800   1.042
2850   1.036
2900   1.030
2950   1.022
3000   1.014
3050   1.000
3100   0.956
3150   0.825
3200   0.735
3250   0.686
3300   0.642
3350   0.614

1850   1.048
1900   1.036
1950   1.029
2000   1.024
2050   1.020
2100   1.017
2150   1.013
2200   1.010
2250   1.007
2300   1.003
2350   1.000
2400   1.000
2450   1.000
2500   1.000
2550   1.000
2600   1.003
2650   1.006
2700   1.010
2750   1.013
2800   1.017
2850   1.020
2900   1.024
2950   1.028
3000   1.032
3050   1.038
3100   1.038
3150   1.036
3200   1.034
3250   1.032
3300   1.030
3350   1.028

58

1850   3.79
1875   2.15
1900   1.79
1925   1.51
1950   1.56
1975   1.73
2000   1.62
2025   1.51
2050   1.86
2075   2.17
2100   1.75
2125   1.41
2150   1.48
2175   2.02
2200   2.27
2225   2.24
2250   2.40
2275   2.67
2300   2.85
2325   2.90
2350   2.88
2375   2.61
2400   1.68
2425   1.71
2450   1.51
2475   0.72
2500   0.98
2525   1.40
2550   1.04
2575   0.88
2600   0.94
2625   0.82
2650   0.65
2675   1.14
2700   1.13
2725   0.74
2750   1.18
2775   1.71
2800   1.60
2825   1.22
2850   1.42
2875   1.22
2900   0.98
2925   0.88
2950   0.94
2975   0.84
3000   0.83
3025   1.32
3050   1.16
3075   0.59
3100   1.03
3125   1.22
3150   0.56
3175   1.29
3200   2.81
3225   1.32
3250   1.02
3275   3.01

# Title:      LWR,LORES,ITF1 Absolute Flux Calibration.
# From:       Bohlin. 1986. Astrophysical Journal, 308, 1001-1012.
#             Clavel, Gilmozzi and Prieto. 1986. ESO IUE Newsletter 26, 65-79.
# Contents:   CALTYP,
#             CALID, 
#             SCALE, THDA, DFNDT,
#             NABS,  NSAP, NTRAIL, DATYP,
#             (WABS(I),   DFDFN(I),  I = 1, NABS),
#             (WSAP(I),   SAPCOR(I), I = 1, NSAP),
#             (WTRAIL(I), TRACOR(I), I = 1, NTRAIL),
#             NDWAV,
#             (WDATE(I),  DATCOR(I), I = 1, NDWAV)
# Notes:      Wavelengths above 2000A are "Air".
# End:
