* Krypton line list.
* Current version August 1992
* ref Wavelengths Standards in the Infrared K. N. Rao et al 1966
* 2nd Numbers are relative strength
* UNITS  = MICRONS
* MEDIUM = VACUUM

 1.08779   80
 1.11902  100
 1.12608  200
 1.12622  150
 1.14606  500
 1.17956  150
 1.18226 1500
 1.20004  600
 1.20805  160
 1.21211  140
 1.21268   40
 1.22079  800
 1.27589  150
 1.28019  120
 1.28654  100
 1.28824  750
 1.29888   25
 1.30259   30
 1.31810 1100
 1.32443  100
 1.33415  120
 1.38261 1000
 1.36379 2400
 1.36621  800
 1.37148  200
 1.37426  600
 1.38366  150
 1.38866  500
 1.39276  700
 1.39427  200
 1.39778  150
 1.41081  140
 1.41601   50
 1.43445   30
 1.43513  800
 1.44062  180
 1.44730  140
 1.47385 1600
 1.47667  550
 1.47695  450
 1.49660  400
 1.50094  120
 1.52137  140
 1.52438 1700
 1.53307  130
 1.53392 1500
 1.53762  700
 1.54782  200
 1.56397   40
 1.56853  180
 1.58244  120
 1.58951  100
 1.63196   50
 1.64703   70
 1.65775   70
 1.67311  200
 1.67897 2000
 1.68581 1000
 1.68951 2400
 1.69014 1600
 1.69404 1800
 1.70746   40
 1.71034  600
 1.72354   30
 1.73724  700
 1.74092  120
 1.76216  150
 1.78476  650
 1.80071  700
 1.81043   80
 1.81723 2600
 1.81900   90
 1.84234   20
 1.85860
 1.87015
 1.87901
 1.87929   50
 1.88028
 2.02153  140
 2.04295  300
 2.11713  600
 2.19085 1800
 2.24918  120
 2.33467
 2.35088
 2.42672
 2.42988
 2.47752
 2.52407
 2.67684
 2.69076
 2.86182
 2.86633
 2.87774
 2.88302
 2.92274
 2.92445
 3.06718
 3.09875
 3.92945
 3.95680
 3.95992
 3.96004
 3.99657
 3.99775
 4.03171
 4.06965
